EPICA Dome C CH4 Data to 650KYrBP
----------------------------------------------------------------------------
               World Data Center for Paleoclimatology, Boulder
                                  and
                     NOAA Paleoclimatology Program
-----------------------------------------------------------------------------

NOTE: PLEASE CITE CONTRIBUTORS WHEN USING THIS DATA!!!!!

NAME OF DATA SET: EPICA Dome C CH4 Data to 650KYrBP
LAST UPDATE: 11/2005 (Original Receipt by WDC Paleo)


CONTRIBUTORS:
Renato Spahni, Thomas F. Stocker, Gregor Hausammann, Kenji Kawamura, 
Jacqueline Flückiger, Jakob Schwander. Climate and Environmental Physics, 
Physics Institute, University of Bern, Switzerland

Jérôme Chappellaz, Laetitia Loulergue, Dominique Raynaud
Laboratoire de Glaciologie et Géophysique de l’Environnement 
(LGGE, CNRS-UJF), Grenoble, France


IGBP PAGES/WDCA CONTRIBUTION SERIES NUMBER: 2005-078

SUGGESTED DATA CITATION: Spahni, R., et al., 2005.
EPICA Dome C CH4 Data to 650KYrBP.
IGBP PAGES/World Data Center for Paleoclimatology
Data Contribution Series # 2005-078
NOAA/NGDC Paleoclimatology Program, Boulder CO, USA.


ORIGINAL REFERENCES:
650 to 20 kyr BP:
Spahni, R., J. Chappellaz, T.F. Stocker, L. Loulergue, G. Hausammann, K. Kawamura, 
J. Flückiger, J. Schwander, D. Raynaud, V. Masson-Delmotte, and J. Jouzel.  2005. 
Atmospheric methane and nitrous oxide of the late Pleistocene from Antarctic ice cores.
Science 310, 1317-1321, 2005.

Holocene:
Flückiger, J., E. Monnin, B. Stauffer, J. Schwander, T.F. Stocker, J. Chappellaz, 
D. Raynaud, and J.-M. Barnola.  2002.
High resolution Holocene N2O ice core record and its relationship with CH4 and CO2. 
Glob. Biogeochem. Cycles, 16 (1), 1010, doi: 10.1029/2001GB001417, 2002.

Last glacial-interglacial transition:
Monnin, E., A. Indermühle, A. Dällenbach, J. Flückiger, B. Stauffer, T.F. Stocker, 
D. Raynaud, and J.-M. Barnola.  2001. 
Atmospheric CO2 concentrations over the last glacial termination. 
Science, 291, 112-114, 2001.



ABSTRACT:
The European Project for Ice Coring in Antarctica Dome C ice core enables us to extend 
existing records of atmospheric methane (CH4) and nitrous oxide (N2O) back to 650,000 
years before the present. A combined record of CH4 measured along the Dome C and the 
Vostok ice cores demonstrates, within the resolution of our measurements, that 
preindustrial concentrations over Antarctica have not exceeded 773 +/- 15 ppbv 
(parts per billion by volume) during the past 650,000 years. Before 420,000 years ago, 
when interglacials were cooler, maximum CH4 concentrations were only about 600 ppbv, 
similar to lower Holocene values. In contrast, the N2O record shows maximum concentrations 
of 278 +/- 7 ppbv, slightly higher than early Holocene values.


GEOGRAPHIC REGION: Antarctica
PERIOD OF RECORD:  0 to 650 kyr BP


DESCRIPTION: 
CH4 record from the EPICA Dome C 1996 and 1999 (EDC96 and EDC99) ice cores (Antarctica)
covering the last 650,000 years. New measurements along the EPICA Dome C (75-06°S, 123-21°E,
3233 m above sea level) ice cores were performed at 553 different depth levels for CH4 
concentration at the University of Bern and at the LGGE in Grenoble. The mean CH4 time 
resolution is 770 years for MISs 2 to 7 and 840 years for MISs 11 to 16.


FUNDING SOURCES: This work is a contribution to the European Project for Ice Coring 
in Antarctica (EPICA), a joint ESF (European Science Foundation)/European Commission (EC) 
scientific program, funded by the EC and by national contributions from Belgium, Denmark, 
France, Germany, Italy, the Netherlands, Norway, Sweden, Switzerland, and the United Kingdom. 
We acknowledge long-term financial support by the Swiss National Science Foundation and the 
Swiss Federal Office of Energy for both science and logistic contributions to EPICA and to 
the University of Bern. Support was also provided by the French program PNEDC (INSU-CNRS), 
and the EC project EPICA-MIS.


DATA:
Column 1: EDC96 depth (m)
Column 2: EDC99 depth (m)
Column 3: Gas age (years before 1950 on EDC1: Schwander et al., 2001)	
Column 4: Gas age (years before 1950 on EDC2: EPICA Community Members, 2004) 
Column 5: CH4 concentration (parts per billion by volume, ppbv)
Column 6: 1-sigma uncertainty CH4 concentration (parts per billion by volume, ppbv)


REMARKS: For EDC96 depth levels the corresponding EDC99 depth is calculated using the comparison
by Eric Wolff (EWWO@bas.ac.uk) between equivalent signals in the Dielectric Profile (DEP) records.
EDC2 time scale matches EDC1 at 784 m depth.  EDC1 is recommended for use above and EDC2	
below 784 m, until a new time scale is adopted.


   EDC96        EDC99      EDC1         EDC2        CH4    CH4_err.
   depth        depth       age          age       conc.    conc.
   99.53        99.34        62            0         907     10
 102.765      102.575       170          148       761.7     10
 104.965      104.775       245          212       682.7     10
 106.815      106.625       309          280         675     10
  110.02       109.83       419          400       684.3     10
 113.215      113.025       528          513       644.3     10
 115.415      115.225       602          572         685     10
 118.665      118.475       711          677       666.7     10
  121.04       120.85       790          768       679.5     10
  121.34       121.15       800          775       643.3     10
 124.765      124.575       915          874         647     10
 126.965      126.775       989          951       623.7     10
 129.365      129.175      1070         1029       634.7     10
  132.02       131.83      1159         1116       643.7     10
 134.665      134.475      1248         1201       628.7     10
 137.965      137.775      1360         1305         620     10
 140.915      140.725      1463         1402       631.3     10
  143.57       143.38      1557         1489       631.7     10
 146.215      146.025      1651         1571       623.3     10
 148.965      148.775      1749         1673         608     10
 150.815      150.625      1816         1734         613     10
  154.02       153.83      1931         1855       613.3     10
 157.765      157.575      2067         1982       603.7     10
 159.965      159.775      2147         2069       608.7     10
 162.235      162.045      2231         2134       601.7     10
 165.465      165.275      2350         2262         597     10
  168.28       168.09      2453         2366       591.7     10
  170.59        170.4      2535         2456       596.5     10
 173.235      173.045      2628         2552       591.7     10
 176.465      176.275      2741         2657         580     10
 178.665      178.475      2818         2741       578.3     10
  180.97       180.78      2901         2804         577     10
 185.465      185.275      3064         2977       572.7     10
 187.465      187.275      3136         3040         576     10
 189.665      189.475      3217         3133       567.7     10
  192.52       192.33      3320         3230       581.3     10
 195.915      195.725      3440         3363       572.7     10
 201.215      201.025      3626         3531       577.7     10
  203.52       203.33      3707         3621         578     10
 203.655      203.465      3711         3626       580.7     10
 205.815      205.625      3788         3714         569     10
 209.465      209.275      3919         3842       569.3     10
 212.215      212.025      4017         3946       567.7     10
  214.52       214.33      4100         4036       575.7     10
  214.66       214.47      4105         4040         563     10
  216.17       215.98      4159         4097       570.3     10
  220.57       220.38      4318         4249       577.3     10
  220.71       220.52      4323         4257       567.7     10
 222.665      222.475      4393         4331       569.7     10
 225.415      225.225      4493         4447       561.7     10
 227.815      227.625      4582         4526       561.7     10
  231.59        231.4      4720         4667         563     10
 233.665      233.475      4795         4737       563.3     10
 236.415      236.225      4893         4843       567.7     10
 240.335      240.145      5036         4984         561     10
  242.04       241.85      5097         5051         563     10
 244.665      244.475      5194         5170       558.3     10
 247.965      247.775      5316         5282       553.7     10
 250.785      250.595      5421         5387         565     10
  253.04       252.85      5504         5470         566     10
 256.215      256.025      5619         5580       568.3     10
 258.965      258.775      5719         5682       569.7     10
  260.17       259.98      5763         5711       584.3     10
  264.02       263.83      5904         5868         575     10
 268.315      268.125      6062         6026         564     10
 269.415      269.225      6102         6058         581     10
 271.815      271.625      6191         6163         576     10
 276.015      275.825      6347         6318         577     10
 278.215      278.025      6429         6397         580     10
  279.97       279.78      6493         6470       587.7     10
 283.785      283.595      6633         6622         607     10
 285.915      285.725      6711         6694       595.3     10
 288.185      287.995      6792         6783       603.3     10
  291.52       291.33      6913         6922       605.3     10
 294.365      294.175      7017         7045         607     10
 297.465      297.275      7131         7158       609.7     10
 299.665      299.475      7210         7258       607.3     10
  302.52       302.33      7311         7375       618.3     10
  305.27       305.08      7408         7489       601.7     10
 308.465      308.275      7519         7600       611.7     10
 311.215      311.025      7616         7716       609.7     10
 311.865      311.675      7638         7731         617     10
 312.415      312.225      7658         7751         621     10
  313.52       313.33      7697         7804       622.7     10
  316.27       316.08      7796         7928         623     10
 317.335      317.145      7835         7961       623.3     10
 317.915      317.725      7856         7986       617.7     10
 319.465      319.275      7913         8041       610.7     10
 320.715      320.525      7960         8096       613.7     10
 321.215      321.025      7978         8121         620     10
 321.805      321.615      8000         8148       597.7     10
 322.405      322.215      8022         8173       612.3     10
 322.935      322.745      8041         8191         589     10
 323.505      323.315      8062         8211         614     10
  324.54       324.35      8100         8250       624.3     10
 325.615      325.425      8140         8298       632.3     10
  326.17       325.98      8160         8327       605.7     10
 327.265      327.075      8200         8374       632.7     10
 327.815      327.625      8220         8393         651     10
 328.365      328.175      8239         8412       640.3     10
  330.04       329.85      8299         8476       641.9     10
  330.43       330.24      8312         8488       640.7     10
 333.215      333.025      8410         8610       649.3     10
 335.965      335.775      8506         8702       659.7     10
  338.27       338.08      8586         8802       653.7     10
  341.02       340.83      8681         8904       657.3     10
 343.665      343.475      8770         9016         659     10
 346.965      346.775      8882         9140       657.5     10
  349.27       349.08      8959         9241       657.3     10
  352.04       351.85      9050         9347         670     10
 355.765      355.575      9169         9480       664.7     10
 357.415      357.225      9222         9545         665     10
  359.72       359.53      9295         9615       663.3     10
 362.915      362.725      9397         9739       673.7     10
  369.07       368.88      9589         9946       682.3     10
 371.165      370.975      9655        10024       683.3     10
  374.57       374.38      9761        10133       676.3     10
 377.215      377.025      9844        10240       682.3     10
  379.52       379.33      9916        10298         685     10
 381.715      381.525      9985        10388         678     10
  385.53       385.34     10106        10514         698     10
  388.28       388.09     10194        10613         678     10
  389.97       389.78     10248        10682         688     10
 393.715      393.525     10368        10824       661.3     10
  396.43       396.24     10456        10935         652     10
 399.215      399.025     10548        11038         666     10
  401.52       401.33     10624        11119       680.7     10
 404.715      404.525     10730        11241       673.3     10
  407.43       407.24     10820        11342         703     10
 411.315      411.125     10950        11484       633.3     10
 412.965      412.775     11006        11558       654.3     10
  415.27       415.08     11084        11631       664.7     10
 418.465      418.275     11193        11765         559     10
  421.32       421.13     11293        11865         469     10
  427.27       427.08     11513        12085       467.7     10
  429.43       429.24     11599        12188       477.3     10
 431.665      431.475     11692        12294       482.7     10
  434.52       434.33     11817        12411       462.3     10
 437.165      436.975     11938        12545       466.7     10
  443.32       443.13     12235        12849         542     10
 445.965      445.775     12368        12994         627     10
  448.27       448.08     12487        13116       643.3     10
 450.915      450.725     12622        13253         646     10
  453.77       453.58     12766        13400       661.7     10
  456.97       456.78     12924        13571       653.3     10
  460.33       460.14     13090        13727       645.7     10
 463.565      463.375     13249        13890       618.7     10
  464.77       464.58     13309        13937         613     10
 467.495      467.305     13442        14089         630     10
  469.72       469.53     13551        14196       611.7     10
  473.13       472.94     13715        14353       578.3     10
  479.62       479.43     14018        14671       464.7     10
  484.02       483.83     14226        14868         461     10
  487.18       486.99     14384        15035       459.3     10
 489.965      489.775     14529        15175       473.3     10
  491.72       491.53     14622        15274       475.7     10
 496.015      495.825     14852        15491         451     10
  498.87       498.68     15010        15635       451.7     10
 501.515      501.325     15163        15786         456     10
 506.465      506.275     15462        16071       473.3     10
  509.18       508.99     15633        16230       418.7     10
 511.965      511.772     15813        16391       427.3     10
  514.68      514.482     15998        16548       404.7     10
  519.77      519.562     16364        16898       408.3     10
  519.91      519.701     16375        16910       381.3     10
  525.82        525.6     16844        17323       371.3     10
 528.465       528.24     17067        17494       383.7     10
  531.18      530.949     17305        17730       366.3     10
 532.865      532.631     17457        17855       371.3     10
  536.68      536.439     17808        18163       375.3     10
 539.465      539.218     18068        18425         371     10
 543.848      543.592     18480        18798       378.7     10
  548.78      548.515     18942        19221       365.7     10
 550.465      550.197     19100        19366         377     10
  552.85      552.577     19323        19591       353.8     10
 555.965      555.686     19615        19871       375.7     10
  557.72      557.437     19779        20009       375.3     10
 561.465      561.175     20131        20355       380.8     10
  564.18      563.885     20383        20578       378.3     10
  569.68      569.374     20891        21074       353.7     10
  572.47      572.159     21151        21320         357     10
  575.87      575.552     21468        21613       357.3     10
  578.17      577.847     21682        21811       355.3     10
  585.77      585.433     22388        22509       407.3     10
  590.66      590.313     22845        22929         390     10
  594.57      594.215     23206        23246       389.7     10
  598.97      598.607     23605        23667         398     10
  603.37      602.998     24005        24043         360     10
  607.77       607.39     24416        24452       388.7     10
  614.37      613.977     25044        24997       369.7     10
  619.26      618.857     25511        25447         355     10
  630.29      629.865     26550        26478         387     10
 634.665      634.232     26955        26905       395.9     10
  638.57      638.129     27309        27275       426.3     10
  643.49       643.04     27741        27709         399     10
  647.37      646.912     28078        28018         414     10
  656.66      656.184     28886        28826       367.7     10
  663.28      662.791     29449        29391       399.3     10
  669.89      669.388     30025        29922       409.7     10
  673.77       673.26     30379        30274       391.7     10
  678.18      677.662     30787        30670         412     10
 689.185      688.645     31809        31656       409.2     30
  694.09      693.541     32246        32074         432     10
  697.97      697.413     32591        32401       444.3     10
  702.37      701.804     32984        32801       478.7     10
  704.57          704     33180        32969         419     10
 709.485      708.906     33611        33399         428     10
   713.4      712.813     33961        33736         489     10
  717.77      717.174     34355        34135       514.3     10
   724.4      723.791     34934        34668         444     10
   728.8      728.183     35308        35051       441.3     10
  733.17      732.544     35687        35417       488.3     10
  740.26       739.62     36310        36017       536.3     10
  744.28      743.632     36656        36371       556.7     10
  749.07      748.413     37052        36753         481     10
     753      752.335     37360        37063         443     10
  762.29      761.607     38066        37755       441.3     10
  766.17       765.48     38368        38021       443.7     10
  768.37      767.675     38542        38182         427     10
  773.25      772.546     38941        38584       422.3     10
    NaN         775.5      NaN         38821         429     10
  779.37      778.654     39488        39113         413     10
    NaN           781      NaN         39330       417.7     10
  783.77      783.045     39890        39523       419.7     10
    NaN       786.515      NaN         39857       464.7     10
    NaN       792.015      NaN         40419       413.7     10
    NaN       803.535      NaN         41488         470     10
    NaN       808.515      NaN         41963         463     10
    NaN       814.015      NaN         42441       411.3     10
    NaN       819.575      NaN         42955       427.3     10
    NaN       825.565      NaN         43538       461.7     10
    NaN       830.515      NaN         43984       466.7     10
    NaN       835.985      NaN         44466       499.3     10
    NaN       842.035      NaN         44923         514     10
    NaN       847.015      NaN         45278         493     10
    NaN       858.045      NaN         46079       436.7     10
    NaN       863.515      NaN         46528         414     10
